"Wavelength, µm","n"
1.2,3.5167
1.22,3.5133
1.24,3.5102
1.26,3.5072
1.28,3.5043
1.3,3.5016
1.32,3.499
1.34,3.4965
1.36,3.4941
1.38,3.4918
1.4,3.4896
1.45,3.4845
1.5,3.4799
1.55,3.4757
1.6,3.4719
1.65,3.4684
1.7,3.4653
1.8,3.4597
1.9,3.455
2,3.451
2.25,3.4431
2.5,3.4375
2.75,3.4334
3,3.4302
4,3.4229
5,3.4195
6,3.4177
7,3.4165
8,3.4158
9,3.4153
10,3.415
11,3.4147
12,3.4145
13,3.4144
14,3.4142